# theta err counts-2 err counts-1 err counts-0 err counts1 err counts1 err
-0.624153 0.000000 17.816034 4.220904 93.684865 9.679094 3129.250937 55.939708 39.185109 6.259801 0.000198 0.014089
-0.594153 0.000000 22.319183 4.724318 108.910486 10.436019 3119.401353 55.851601 48.693192 6.978051 0.000050 0.007088
-0.564153 0.000000 42.752094 6.538509 121.468326 11.021267 2954.132398 54.351931 38.964095 6.242123 0.000047 0.006844
-0.534153 0.000000 38.416761 6.198126 145.571845 12.065316 2911.919324 53.962203 38.293046 6.188138 0.000038 0.006174
-0.504153 0.000000 62.438066 7.901776 211.116029 14.529832 2911.688327 53.960062 49.534469 7.038073 0.000000 0.000000
-0.474153 0.000000 116.338291 10.786023 237.385872 15.407332 2858.087656 53.461085 66.395926 8.148370 0.000045 0.006724
-0.444153 0.000000 136.284689 11.674103 311.218870 17.641396 2843.063587 53.320386 58.796295 7.667874 0.000046 0.006780
-0.414153 0.000000 247.269836 15.724816 376.460537 19.402591 2557.737280 50.574077 61.455085 7.839329 0.000042 0.006444
-0.384153 0.000000 359.317990 18.955685 412.851075 20.318737 2357.777737 48.556954 50.139226 7.080906 0.000000 0.000000
-0.354153 0.000000 474.215116 21.776481 536.608014 23.164801 2124.023258 46.087127 77.490936 8.802894 0.000033 0.005782
-0.324153 0.000000 608.037182 24.658410 586.201951 24.211608 1948.081684 44.137078 62.993944 7.936872 0.000020 0.004450
-0.294153 0.000000 671.786995 25.918854 733.841519 27.089509 1757.040854 41.917071 79.528228 8.917860 0.000000 0.000004
-0.264153 0.000000 560.807964 23.681384 739.528304 27.194270 1860.524369 43.133796 74.825210 8.650157 0.000000 0.000000
-0.234153 0.000000 359.154128 18.951362 804.360594 28.361252 1908.978805 43.691862 114.169201 10.684999 0.000025 0.005025
-0.204153 0.000000 208.341378 14.434035 1593.405337 39.917482 1410.957042 37.562708 113.248981 10.641850 0.000019 0.004319
-0.174153 0.000000 115.999610 10.770311 1747.505383 41.803174 1322.403244 36.364863 129.533659 11.381285 0.000021 0.004630
-0.144153 0.000000 97.081911 9.853015 1420.317747 37.687103 1572.595224 39.655961 223.662396 14.955347 0.000021 0.004577
-0.114153 0.000000 52.962662 7.277545 1255.678447 35.435553 1664.677530 40.800460 211.888345 14.556385 0.000027 0.005177
-0.084153 0.000000 0.000024 0.004928 1103.250202 33.215210 1838.883010 42.882199 272.666430 16.512614 0.000029 0.005427
-0.054153 0.000000 0.000028 0.005323 733.850719 27.089679 2088.945225 45.704980 349.803457 18.703033 0.000028 0.005323
-0.024153 0.000000 0.000033 0.005759 593.974356 24.371589 2186.064699 46.755371 416.635257 20.411645 0.000033 0.005763
0.005847 0.000000 0.000000 0.000025 512.590087 22.640452 2177.342142 46.661999 499.148151 22.341624 0.000035 0.005953
0.035847 0.000000 0.000035 0.005900 372.250654 19.293798 2146.466899 46.329978 649.870643 25.492561 0.000035 0.005896
0.065847 0.000000 0.000035 0.005905 319.975836 17.887868 2187.772391 46.773629 707.930712 26.606967 0.000035 0.005905
0.095847 0.000000 0.000027 0.005166 228.312529 15.110014 2012.017376 44.855517 947.421050 30.780205 29.691375 5.448979
0.125847 0.000000 0.000000 0.000000 203.061936 14.249980 1851.975746 43.034588 1182.079761 34.381387 47.224217 6.871988
0.155847 0.000000 0.000023 0.004804 163.413008 12.783310 1705.656322 41.299592 1264.000598 35.552786 60.480659 7.776931
0.185847 0.000000 0.000000 0.000004 152.057622 12.331165 1484.465555 38.528763 1424.500625 37.742557 93.321203 9.660290
0.215847 0.000000 0.000026 0.005122 104.694534 10.232035 1619.011798 40.236946 1325.453871 36.406783 98.496280 9.924529
0.245847 0.000000 0.000026 0.005060 88.041211 9.383028 1828.732212 42.763679 1064.493153 32.626571 100.105672 10.005282
0.275847 0.000000 0.000029 0.005407 104.129882 10.204405 1833.113317 42.814873 1032.497411 32.132498 220.650887 14.854322
0.305847 0.000000 0.000024 0.004916 92.013007 9.592341 1900.434576 43.593974 886.997161 29.782498 328.067787 18.112642
0.335847 0.000000 0.000000 0.000299 98.344588 9.916884 2147.215625 46.338058 658.951053 25.670042 435.809099 20.876041
0.365847 0.000000 0.000031 0.005543 78.731302 8.873066 2237.079995 47.297780 409.759593 20.242519 501.468738 22.393498
0.395847 0.000000 0.000032 0.005655 66.584785 8.159950 2249.176468 47.425483 410.256041 20.254778 583.583676 24.157477
0.425847 0.000000 0.000030 0.005494 57.250844 7.566429 2295.535262 47.911745 392.704990 19.816786 548.453733 23.419089
0.455847 0.000000 0.000033 0.005724 52.770624 7.264339 2444.126613 49.438109 333.881606 18.272427 454.107449 21.309797
0.485847 0.000000 0.000042 0.006462 72.315460 8.503850 2612.850505 51.116049 310.886791 17.631982 284.225842 16.858999
0.515847 0.000000 0.000043 0.006591 67.802761 8.234243 2740.121432 52.346169 207.286881 14.397461 178.304981 13.353089
0.545847 0.000000 0.000000 0.000002 46.393190 6.811255 2872.531605 53.596004 143.352226 11.972979 138.938708 11.787226
0.575847 0.000000 0.000000 0.000002 49.838496 7.059639 3042.529254 55.159127 150.732709 12.277325 80.262857 8.958954
0.605847 0.000000 0.000000 0.000000 39.636926 6.295786 2988.138148 54.663865 136.507161 11.683628 51.346054 7.165616
0.635847 0.000000 0.000000 0.000001 39.756622 6.305285 3107.222689 55.742468 119.557210 10.934222 30.114667 5.487683
